   W                 E2-_p1/2
 (MeV)      Re       DRe      Im       DIm
1125.893    1.396    0.378    0.178    0.117
1127.891    1.251    0.378    0.195    0.094
1129.903    1.277    0.371   -0.011    0.169
1131.911    1.012    0.559   -0.008    0.165
1133.915    0.970    0.558   -0.025    0.156
1135.841    1.431    0.240    0.074    0.093
1135.916    1.448    0.243    0.063    0.097
1137.913    1.392    0.247    0.024    0.128
1139.396    1.271    0.235   -0.091    0.331
1139.923    1.315    0.233   -0.064    0.228
1141.905    1.944    0.644   -0.063    0.127
1142.931    1.852    0.638    0.024    0.296
1143.916    1.827    0.653    0.075    0.219
1145.916    1.867    0.642    0.065    0.170
1146.464    1.818    0.642   -0.032    0.147
1147.855    1.848    0.647    0.039    0.119
1149.905    1.250    0.291    0.064    0.217
1149.986    1.243    0.297    0.063    0.250
1151.886    1.367    0.289    0.113    0.244
1153.497    1.160    0.299    0.141    0.141
1153.880    1.109    0.289   -0.142    0.191
1155.862    1.202    0.653    0.125    0.175
1157.006    1.639    0.456    0.118    0.150
1157.849    1.651    0.458    0.033    0.136
1159.841    1.737    0.458   -0.048    0.123
1160.504    1.932    0.329    0.051    0.123
1161.821    2.000    0.315    0.170    0.140
1163.798    1.876    0.324   -0.049    0.213
1163.991    1.815    0.320    0.008    0.187
1165.780    1.832    0.300   -0.133    0.228
1167.468    1.676    0.319    0.125    0.434
1167.758    1.636    0.300    0.095    0.374
1169.733    1.736    0.301    0.114    0.173
1170.951    1.552    0.449   -0.090    0.165
1171.680    1.551    0.453   -0.007    0.467
1173.680    1.493    0.438    0.058    0.168
1174.336    1.689    0.332    0.104    0.206
1175.653    1.694    0.327    0.146    0.116
1177.631    1.881    0.304    0.034    0.177
1177.870    1.643    0.322   -0.094    0.160
1179.597    1.641    0.309    0.138    0.133
1181.306    1.740    0.347    0.040    0.178
1181.560    1.798    0.316    0.034    0.145
1183.528    1.748    0.269   -0.021    0.128
1184.748    1.393    0.312    0.035    0.189
1185.493    1.694    0.266   -0.179    0.129
1187.454    1.410    0.360   -0.086    0.124
1188.180    1.177    0.393    0.016    0.189
1189.412    1.181    0.370   -0.149    0.151
1191.366    1.208    0.300   -0.167    0.127
1191.603    0.938    0.318    0.161    0.197
1193.334    1.098    0.300   -0.293    0.127
1195.015    0.955    0.333   -0.101    0.200
1195.235    0.966    0.315   -0.178    0.155
1197.235    2.042    0.350    0.185    0.133
1198.426    2.281    0.363    0.029    0.191
1199.193    1.889    0.357   -0.326    0.136
1201.038    1.880    0.256    0.012    0.114
1201.819    2.051    0.277   -0.036    0.194
1202.950    2.302    0.354    0.463    0.106
1204.852    1.812    0.342    0.128    0.142
1205.210    2.215    0.364    0.187    0.184
1206.751    2.391    0.235    0.139    0.135
1208.600    1.830    0.302    0.198    0.178
1208.646    2.043    0.237    0.007    0.122
1210.539    2.366    0.200    0.238    0.142
1211.987    2.062    0.211    0.465    0.164
1212.429    2.275    0.232    0.219    0.121
1214.315    2.178    0.197   -0.110    0.131
1215.273    2.039    0.228    0.052    0.175
1216.207    2.140    0.186   -0.318    0.117
1218.049    2.305    0.175   -0.228    0.126
1218.712    2.467    0.202   -0.143    0.192
1219.951    2.408    0.187    0.240    0.134
1221.826    2.159    0.197   -0.260    0.118
1222.048    2.009    0.210   -0.287    0.143
1223.690    2.078    0.176    0.265    0.129
1225.399    2.551    0.223   -0.248    0.149
1225.560    2.106    0.185    0.003    0.143
1227.419    2.206    0.191   -0.382    0.132
1228.733    2.026    0.252   -0.060    0.130
1229.275    2.375    0.238   -0.504    0.133
1231.128    2.448    0.255   -0.054    0.340
1232.065    2.409    0.247   -0.057    0.194
1232.979    2.546    0.242    0.074    0.318
1234.819    2.321    0.283   -0.084    0.131
1235.389    2.479    0.290   -0.028    0.189
1236.664    2.625    0.269   -0.153    0.155
1238.514    2.128    0.212    0.474    0.148
1238.696    1.997    0.246   -0.118    0.218
1240.301    2.205    0.234   -0.479    0.130
1242.009    2.118    0.288   -0.073    0.165
1242.183    2.151    0.235   -0.078    0.137
1244.002    2.268    0.222   -0.184    0.164
1245.306    2.345    0.237   -0.072    0.223
1245.826    2.178    0.215    0.007    0.148
1247.647    2.415    0.220   -0.018    0.147
1248.594    2.426    0.248   -0.104    0.209
1249.466    2.322    0.226   -0.360    0.165
1251.274    2.499    0.266    0.137    0.164
1251.896    2.550    0.279    0.027    0.207
1253.095    2.499    0.266    0.165    0.164
1254.883    2.454    0.235   -0.183    0.172
1255.085    2.463    0.243   -0.278    0.184
1256.684    2.457    0.231   -0.242    0.157
1258.437    2.806    0.234   -0.066    0.189
1258.482    2.719    0.222    0.014    0.163
1260.285    2.700    0.220    0.313    0.155
1261.691    2.675    0.213    0.015    0.183
1262.026    2.607    0.197    0.174    0.150
1263.861    2.734    0.235    0.300    0.214
1264.944    2.582    0.218    0.229    0.175
1265.649    2.672    0.259    0.116    0.133
1267.412    2.561    0.259    0.228    0.189
1268.189    2.682    0.279    0.118    0.196
1269.187    2.566    0.234    0.120    0.162
1270.960    2.637    0.236   -0.036    0.163
1271.433    2.688    0.253   -0.104    0.173
1272.731    2.636    0.246    0.169    0.187
1274.477    2.788    0.254    0.241    0.164
1274.661    2.833    0.267    0.248    0.180
1276.250    3.038    0.261    0.083    0.166
1278.006    2.905    0.218    0.014    0.183
1279.752    2.703    0.231    0.370    0.200
1281.108    3.085    0.297    0.329    0.160
1281.510    3.246    0.286    0.109    0.141
1283.215    3.062    0.322    0.392    0.196
1284.319    2.916    0.268    0.249    0.162
1284.991    3.000    0.268    0.427    0.184
1286.720    2.886    0.276    0.490    0.215
1287.522    3.109    0.261    0.316    0.150
1288.447    2.706    0.228    0.317    0.171
1290.179    2.739    0.227    0.282    0.169
1290.724    2.620    0.225    0.262    0.145
1291.902    2.718    0.241    0.449    0.229
1293.614    2.660    0.262    0.460    0.225
1293.846    2.650    0.240    0.502    0.137
1295.332    2.605    0.247    0.409    0.162
1297.041    2.530    0.238    0.404    0.140
1297.098    2.536    0.235    0.198    0.132
1298.754    2.433    0.253    0.368    0.143
1300.263    2.467    0.244    0.190    0.126
1300.450    2.441    0.254    0.382    0.142
1302.152    2.451    0.249    0.333    0.146
1303.434    2.945    0.328    0.160    0.113
1303.816    3.222    0.343    0.549    0.132
1305.542    3.217    0.341    0.441    0.134
1306.590    3.087    0.343    0.535    0.125
1307.222    3.135    0.342    0.366    0.130
1308.901    3.187    0.339    0.423    0.124
1309.746    2.549    0.277    0.463    0.124
1310.577    2.529    0.261    0.333    0.142
1312.251    2.523    0.261    0.334    0.140
1312.895    2.556    0.275    0.461    0.123
1313.916    2.575    0.273    0.380    0.130
1315.579    2.826    0.359    0.315    0.133
1316.035    2.789    0.362    0.494    0.129
1317.240    2.759    0.388    0.310    0.224
1318.898    2.662    0.481    0.400    0.153
1320.548    2.710    0.483    0.318    0.152
1322.174    2.710    0.286    0.347    0.143
1323.847    2.709    0.283    0.353    0.141
1325.406    2.895    0.441    0.357    0.144
1325.477    2.885    0.467    0.540    0.210
1327.118    2.809    0.464    0.660    0.212
1328.531    2.909    0.441    0.355    0.144
1328.743    2.831    0.471    0.664    0.215
1330.373    2.493    0.384    0.515    0.208
1331.557    2.465    0.354    0.353    0.149
1331.987    2.471    0.380    0.587    0.197
1333.606    2.434    0.378    0.654    0.201
1334.732    2.637    0.320    0.617    0.130
1335.217    2.516    0.325    0.456    0.204
1336.825    2.573    0.348    0.471    0.240
1337.807    2.670    0.371    0.645    0.175
1338.438    2.619    0.366    0.425    0.238
1340.000    3.015    0.411    0.572    0.214
1340.896    2.900    0.403    0.565    0.154
1341.631    2.952    0.433    0.545    0.239
1343.211    2.942    0.406    0.534    0.201
1343.972    3.043    0.382    0.564    0.161
1344.809    2.929    0.410    0.514    0.210
1346.378    2.325    0.371    0.505    0.220
1347.040    2.407    0.341    0.607    0.150
1347.959    2.300    0.356    0.454    0.199
1349.531    2.220    0.338    0.532    0.177
1350.101    2.329    0.367    0.597    0.181
1351.095    2.268    0.351    0.412    0.183
1352.663    2.342    0.367    0.568    0.215
1353.156    2.314    0.368    0.569    0.182
1354.223    2.302    0.350    0.512    0.195
1355.767    2.767    0.365    0.731    0.215
1356.203    2.821    0.332    0.778    0.121
1357.296    2.825    0.363    0.729    0.215
1358.864    2.806    0.371    0.735    0.222
1359.244    2.835    0.356    0.800    0.197
1360.410    2.827    0.348    0.828    0.194
1361.954    2.638    0.351    0.735    0.220
1362.285    2.600    0.355    0.778    0.198
1363.469    2.637    0.350    0.729    0.214
1364.996    2.670    0.335    0.708    0.218
1366.528    2.348    0.369    0.703    0.205
1368.030    2.440    0.351    0.640    0.183
1368.264    2.339    0.362    0.729    0.234
1369.545    2.360    0.356    0.747    0.191
1371.065    2.760    0.354    0.917    0.206
1371.353    2.835    0.302    0.881    0.152
1372.556    2.784    0.354    0.949    0.212
1374.032    2.778    0.352    0.933    0.205
1374.353    2.902    0.339    0.999    0.179
1375.561    2.849    0.338    0.986    0.179
1377.034    2.802    0.341    0.976    0.181
1377.347    2.710    0.306    0.982    0.147
1378.518    2.637    0.352    0.959    0.182
1379.994    2.554    0.365    0.838    0.215
1380.341    2.327    0.312    0.781    0.134
1381.483    2.523    0.262    0.668    0.171
1382.928    2.587    0.251    0.836    0.182
1383.329    2.457    0.317    0.630    0.114
1384.413    2.519    0.355    0.809    0.221
1385.863    2.537    0.357    0.844    0.211
1386.310    2.494    0.316    0.617    0.114
1387.318    2.502    0.335    0.603    0.141
1388.771    2.478    0.314    0.690    0.142
1389.278    2.462    0.294    0.713    0.112
1390.183    2.495    0.322    0.691    0.139
1391.660    2.503    0.331    0.896    0.219
1392.246    2.465    0.293    0.710    0.115
1393.088    2.936    0.355    1.108    0.193
1394.522    2.930    0.316    1.024    0.156
1395.202    2.663    0.311    0.913    0.139
1395.941    2.894    0.351    1.073    0.198
1397.359    2.807    0.257    1.078    0.124
1398.158    2.755    0.237    1.127    0.105
1398.788    2.825    0.255    1.086    0.117
1400.189    2.699    0.257    0.916    0.132
1401.107    2.679    0.237    0.979    0.097
1401.589    2.734    0.260    0.944    0.128
1403.001    2.748    0.342    1.016    0.142
1404.371    2.739    0.341    0.977    0.144
1405.787    2.822    0.352    1.148    0.168
1407.168    2.828    0.343    1.197    0.181
1408.548    2.873    0.345    1.227    0.179
1409.892    3.026    0.260    1.371    0.136
1409.919    3.230    0.292    1.430    0.179
1411.296    3.208    0.296    1.421    0.183
1412.658    3.300    0.280    1.558    0.152
1412.811    3.100    0.259    1.487    0.127
1414.019    2.965    0.225    1.541    0.142
1415.379    2.861    0.224    1.440    0.139
1416.730    2.880    0.220    1.459    0.136
1418.048    2.986    0.227    1.512    0.137
1418.623    2.861    0.203    1.480    0.112
1419.417    2.968    0.226    1.515    0.137
1420.745    2.844    0.240    1.375    0.135
1421.517    2.753    0.203    1.611    0.118
1422.078    2.756    0.206    1.603    0.173
1423.397    2.916    0.292    1.847    0.172
1424.722    2.917    0.292    1.916    0.162
1426.038    2.924    0.293    1.909    0.168
1427.294    2.927    0.289    1.900    0.146
1427.347    2.963    0.291    2.110    0.131
1428.654    2.967    0.290    2.107    0.132
1429.961    2.925    0.242    2.145    0.119
1430.171    2.929    0.236    2.183    0.114
1431.226    2.920    0.242    2.149    0.119
1432.537    2.867    0.257    2.166    0.126
1433.035    2.871    0.252    2.193    0.122
1433.814    2.874    0.256    2.177    0.126
1435.096    2.856    0.257    2.187    0.126
1435.913    2.874    0.255    2.202    0.124
1436.370    2.909    0.272    2.373    0.143
1437.650    2.903    0.271    2.384    0.141
1438.902    2.908    0.273    2.367    0.143
1440.160    3.039    0.271    2.379    0.141
1441.424    3.049    0.262    2.510    0.144
1441.612    2.969    0.255    2.529    0.140
1442.647    2.959    0.260    2.515    0.143
1443.902    2.872    0.246    2.551    0.141
1444.441    2.773    0.244    2.311    0.145
1445.142    2.871    0.247    2.552    0.141
1446.998    2.879    0.244    2.444    0.147
1447.277    2.880    0.237    2.404    0.144
1449.453    2.725    0.218    2.372    0.136
1450.107    2.615    0.213    2.446    0.130
1451.885    2.728    0.216    2.418    0.139
1452.925    2.604    0.215    2.447    0.131
1454.281    2.709    0.162    2.861    0.113
1455.738    2.708    0.154    2.724    0.113
1456.679    2.714    0.157    2.765    0.115
1458.546    2.623    0.245    2.838    0.174
1459.047    2.470    0.247    2.811    0.177
1461.348    2.444    0.245    2.835    0.175
1461.393    2.591    0.248    2.905    0.178
1463.721    2.338    0.205    2.998    0.168
1464.138    2.208    0.202    2.926    0.161
1466.034    2.225    0.204    2.925    0.163
1466.923    2.454    0.170    3.312    0.143
1468.323    2.481    0.172    3.298    0.145
1469.715    2.397    0.161    3.371    0.140
1470.590    2.407    0.163    3.362    0.143
1472.413    2.322    0.161    3.457    0.142
1472.840    2.509    0.203    3.855    0.202
1475.062    2.630    0.204    3.903    0.202
1475.253    2.449    0.201    3.899    0.201
1477.280    2.616    0.204    3.930    0.201
1477.998    1.932    0.150    3.766    0.166
1479.463    1.877    0.154    3.859    0.169
1480.750    1.716    0.157    3.780    0.178
1481.631    1.715    0.161    3.768    0.181
1483.491    1.575    0.145    3.830    0.171
1483.782    1.579    0.148    3.808    0.173
1485.906    1.552    0.149    3.842    0.174
1488.026    1.229    0.133    4.105    0.188
1488.959    1.215    0.129    4.110    0.186
1490.111    1.207    0.133    4.099    0.188
1491.685    1.172    0.127    4.091    0.186
1492.188    1.169    0.131    4.092    0.189
1494.236    0.778    0.127    4.039    0.214
1494.400    0.776    0.123    4.049    0.212
1496.282    0.753    0.127    4.035    0.215
1497.109    0.673    0.114    4.143    0.198
1498.293    0.682    0.119    4.113    0.200
1499.814    0.540    0.088    4.580    0.169
1500.290    0.571    0.095    4.545    0.172
1502.277    0.527    0.095    4.555    0.173
1502.515    0.511    0.091    4.553    0.171
1504.231    0.295    0.095    4.613    0.207
1505.141    0.259    0.091    4.632    0.205
1506.188    0.243    0.095    4.617    0.207
1507.882    0.027    0.077    4.369    0.186
1508.112    0.032    0.086    4.359    0.190
1510.014   -0.013    0.086    4.362    0.190
1510.549   -0.256    0.065    4.436    0.157
1511.921   -0.265    0.074    4.428    0.161
1513.217   -0.374    0.063    4.460    0.160
1513.887   -0.439    0.068    4.453    0.161
1515.875   -0.529    0.059    4.397    0.158
1515.918   -0.535    0.068    4.396    0.162
1518.015   -0.938    0.063    4.175    0.135
1518.528   -0.938    0.050    4.155    0.130
1520.171   -0.958    0.061    4.150    0.136
1521.176   -0.949    0.049    4.125    0.130
1522.360   -1.019    0.060    4.053    0.217
1523.814   -1.024    0.052    4.028    0.215
1524.553   -1.047    0.060    4.017    0.217
1526.724   -1.303    0.055    3.638    0.136
1528.843   -1.317    0.054    3.609    0.137
1529.070   -1.303    0.045    3.610    0.132
1530.891   -1.486    0.056    3.480    0.146
1531.681   -1.468    0.045    3.459    0.143
1532.857   -1.494    0.054    3.447    0.147
1534.307   -1.550    0.042    3.349    0.144
1534.705   -1.544    0.058    3.345    0.148
1536.452   -1.678    0.056    3.505    0.145
1536.843   -1.675    0.043    3.481    0.141
1538.069   -1.701    0.054    3.478    0.145
1539.502   -1.679    0.041    3.437    0.140
1539.911   -1.715    0.053    3.456    0.146
1542.078   -1.738    0.043    3.076    0.127
1544.662   -1.888    0.060    3.057    0.150
1547.235   -1.907    0.051    3.047    0.146
1549.804   -1.993    0.054    2.757    0.163
1552.363   -2.051    0.047    2.666    0.160
1554.912   -1.958    0.051    2.483    0.162
1557.462   -1.938    0.047    2.134    0.126
1559.996   -1.916    0.047    2.094    0.126
1562.532   -1.919    0.047    2.137    0.130
1565.004   -1.903    0.048    2.120    0.126
1567.574   -1.875    0.048    2.089    0.124
1570.074   -1.848    0.050    1.440    0.155
1573.823   -1.709    0.060    1.438    0.149
1577.556   -1.698    0.053    1.567    0.146
1580.035   -1.635    0.052    1.558    0.143
1582.509   -1.632    0.055    1.513    0.148
1584.973   -1.559    0.056    1.323    0.158
1587.428   -1.512    0.052    1.316    0.156
1589.891   -1.424    0.047    1.329    0.124
1592.273   -1.470    0.048    1.350    0.124
1594.764   -1.434    0.049    1.308    0.123
1597.186   -1.357    0.046    1.223    0.112
1599.605   -1.361    0.046    1.193    0.112
1602.020   -1.349    0.045    1.186    0.111
1604.425   -1.358    0.043    1.193    0.107
1606.821   -1.310    0.044    1.091    0.116
1609.213   -1.303    0.044    1.093    0.116
1611.596   -1.246    0.046    0.624    0.107
1613.970   -1.238    0.051    0.683    0.110
1616.346   -1.236    0.050    0.656    0.106
1618.654   -1.208    0.052    0.616    0.120
1621.058   -1.202    0.053    0.594    0.118
1623.395   -1.159    0.053    0.589    0.115
1625.734   -1.224    0.050    0.639    0.109
1628.064   -1.225    0.052    0.625    0.110
1630.385   -1.186    0.053    0.547    0.106
1632.702   -1.129    0.054    0.550    0.112
1635.011   -1.127    0.058    0.482    0.112
1637.311   -1.115    0.054    0.587    0.121
1639.601   -1.163    0.050    0.692    0.096
1641.894   -1.142    0.049    0.713    0.095
1644.121   -1.131    0.053    0.679    0.095
1646.442   -1.124    0.052    0.682    0.095
1648.692   -1.113    0.051    0.700    0.082
1650.950   -1.095    0.051    0.715    0.082
1653.193   -1.116    0.053    0.688    0.082
1655.433   -1.241    0.054    0.724    0.069
1657.665   -1.157    0.074    0.711    0.068
1659.888   -1.173    0.071    0.721    0.068
1662.102   -1.182    0.075    0.733    0.070
1664.308   -1.146    0.074    0.736    0.068
1666.517   -1.107    0.058    0.698    0.065
1668.660   -1.227    0.067    0.675    0.081
1670.891   -1.220    0.067    0.661    0.082
1673.063   -1.215    0.067    0.674    0.082
1675.232   -1.103    0.083    0.657    0.079
1677.392   -1.315    0.075    0.792    0.070
1679.545   -1.296    0.076    0.792    0.070
1681.694   -1.278    0.068    0.783    0.068
1683.829   -1.290    0.061    0.776    0.069
1685.957   -1.398    0.066    0.626    0.066
1688.087   -1.393    0.066    0.645    0.066
1690.159   -1.298    0.071    0.633    0.065
1692.306   -1.354    0.072    0.575    0.066
1694.400   -1.341    0.071    0.587    0.065
1696.492   -1.383    0.070    0.590    0.067
1698.576   -1.462    0.068    0.545    0.056
1700.646   -1.445    0.066    0.573    0.056
1702.714   -1.379    0.066    0.518    0.056
1704.773   -1.370    0.065    0.529    0.056
1706.825   -1.360    0.064    0.544    0.056
1708.874   -1.281    0.078    0.530    0.055
1710.872   -1.421    0.071    0.463    0.043
1712.938   -1.417    0.067    0.471    0.043
1714.953   -1.402    0.066    0.483    0.043
1716.965   -1.405    0.072    0.515    0.057
1718.969   -1.416    0.076    0.524    0.063
1724.930   -1.148    0.061    0.247    0.045
1726.904   -1.120    0.062    0.256    0.044
1730.827   -1.112    0.065    0.348    0.051
1735.678   -1.182    0.063    0.404    0.049
1739.528   -1.136    0.057    0.404    0.048
1745.241   -1.294    0.065    0.126    0.052
1749.001   -1.328    0.063    0.148    0.051
1753.678   -0.682    0.058   -0.080    0.045
1759.212   -0.670    0.051    0.115    0.043
1763.766   -0.680    0.047    0.142    0.042
1767.385   -0.718    0.055    0.058    0.044
1770.965   -0.726    0.055    0.086    0.044
1774.511   -0.727    0.060    0.117    0.044
1778.029   -0.624    0.052   -0.062    0.050
1781.509   -0.598    0.039    0.023    0.041
1784.971   -0.644    0.043    0.056    0.036
1790.094   -0.680    0.048    0.055    0.043
1793.471   -0.646    0.047    0.072    0.043
1796.806   -0.669    0.047    0.058    0.042
1800.129   -0.262    0.046   -0.082    0.036
1803.415   -0.271    0.044   -0.094    0.036
1806.669   -0.234    0.042   -0.150    0.049
1809.896   -0.640    0.034    0.091    0.052
1813.082   -0.638    0.032    0.097    0.042
1816.251   -0.614    0.035    0.108    0.044
1819.390   -0.620    0.044    0.085    0.047
1822.497   -0.498    0.031    0.009    0.041
1825.562   -0.541    0.035    0.109    0.054
1828.623   -0.540    0.036    0.114    0.053
1831.643   -0.538    0.035    0.118    0.052
1834.637   -0.537    0.036    0.118    0.050
1838.336   -0.497    0.060    0.032    0.068
1841.997   -0.495    0.058    0.056    0.069
1844.898   -0.502    0.062    0.063    0.063
1847.754   -0.273    0.066   -0.080    0.053
1852.035   -0.266    0.067   -0.090    0.055
1854.976   -0.268    0.066   -0.066    0.056
1858.008   -0.253    0.067   -0.072    0.056
1861.147   -0.248    0.067   -0.064    0.055
1864.365   -0.260    0.067   -0.031    0.059
1869.276   -0.285    0.071    0.027    0.089
1872.541   -0.287    0.065    0.003    0.058
1875.750   -0.126    0.052   -0.011    0.064
1878.864   -0.101    0.051    0.030    0.059
1887.394   -0.040    0.047   -0.027    0.058
1889.902   -0.048    0.048    0.023    0.069
1894.385   -0.059    0.053   -0.024    0.038
